GRASP_Variant V.10.25f    Instrument:  ILL_d22_2D 
  
***** Sample, Backgrounds and Transmissions Data: ***** 
Subtitle:  sample wet 17.6C10 11A 10mm ap 
Start: 25-May-24  15:36:29   End: 25-May-24  15:51:29 
  
Foreground:  247574 , Loaded: 247540,247573{3} 
Background:  247571 , Loaded: 247542+247571 
Blocked Beam:  247572 , Loaded: 247572 
  
Beam Centre1 [x, y]:  [62.6, 127]  :  Cm Translation:  [0, 0] [mm]  :  ROI: [1  128    1  256]  :  Numor #247541 
Beam Centre2 [x, y]:  [48.8, 123]  :  Cm Translation:  [0, 0] [mm]  :  ROI: [1   96    1  256]  :  Numor #0 
Transmissions:  Ts = 0.042127 +/- 0.00011449  Te = 0.97693 +/- 0.001943 
Transmission Numors: Ts:  #247574/ #247542;  ROI:  60   65  120  133 
Transmission Numors: Te:  #247542/ #247570;  ROI:  60   65  120  133 
Transmissions Thickness Correction is:  on 
Applying standard SANS data reduction:  I_corr = 1/[Ts Te] [I_s - I_cd]  - 1/[Te] [I_bck - I_cd] 
  
***** Calibrations: ***** 
Data: Corrected for D22 Detector Parallax 
Data: Corrected for Detector Efficiency 
Data: Corrected for Relative Detector Efficiency (variation between detector panels) 
Data: Divided by Volume 
Sample Thickness is: 0.2 cm 
Solid Angle Correction: 
Divide data by Empty Beam Flux, I0, from worksheet: I0 Beam Intensity 2 4 
I0 Numor #247541   ROI: 55   70  108  140    1 
Applying Default Instrument Mask 
Applying User Defined Mask 
Applying NanInf Mask 
Intensity units are:  cm-1 \\ \Delta\Omega  
  
***** Instrument Setup Parameters ***** 
Sample-Det1 Dist (m): 17.604 
Sample-Det2 Dist (m): 1.407 
Collimation (m): 17.6 
Wavelength: 11.5, Delta Wav: 0.10457 
SAN: 0 (degrees) 
PHI: 0 (degrees) 
Sample Temperature: 273.15 
Total Det Counts: 3830130 
Total Monitor Counts: 1171905 
  
***** Analysis ***** 
Averaging Worksheets through Depths  1:4 
Numor:  247574 
Averaging I vs. Q.  Bin size:  5 [Fractional Resolution]  linear 
 
 
***** Data ***** 
Mod_Q	I	Err_I	Sigma_Q	
 
 
0.000625761	564347	4498.78	0.000187278
0.000707289	565813	3460.6	0.000187803
0.000800146	557580	4396.93	0.000188481
0.000895139	544837	2598.3	0.000189258
0.0010012	533607	3034.46	0.000190217
0.00111087	516171	2563.61	0.000191319
0.00120187	504202	2424.18	0.000192309
0.00131224	484569	2455.85	0.000193603
0.0014063	467734	2050.31	0.000194784
0.0015125	455855	2153.37	0.000196197
0.00162822	429394	1715.88	0.000197834
0.00173137	410904	1857.14	0.000199635
0.00184655	395431	1631.21	0.000201432
0.00194221	378278	1608.33	0.000202985
0.0020534	360178	1557.5	0.000204859
0.00215495	343852	1344.57	0.000206623
0.00226637	326305	1368.74	0.000208621
0.00238058	306337	1174.97	0.000210723
0.00248954	292570	1206.5	0.000213007
0.00260853	277575	1065.71	0.000215284
0.00271282	261227	1078.03	0.00021731
0.00283357	247200	965.419	0.000219688
0.00294031	233367	934.37	0.000221817
0.00306037	218414	891.29	0.000225241
0.00316897	206224	811.72	0.000228411
0.00329032	194207	809.374	0.000231723
0.00340368	182173	706.849	0.000235089
0.00352807	169636	715.635	0.000238584
0.00365045	160648	610.173	0.000242618
0.00378082	149142	635.414	0.000246196
0.00390445	139443	543.011	0.000249926
0.0040364	130180	568.263	0.00025369
0.00415786	121431	495.992	0.000256968
0.00429279	113400	491.794	0.000261634
0.0044188	105955	446.475	0.000265394
0.00456134	97504.7	417.92	0.000269779
0.00469322	91524	396.053	0.000273941
0.00483774	84569.9	374.291	0.000278388
0.00496798	78682.5	368.061	0.00028301
0.00511238	72461.8	320.067	0.000287647
0.00525605	67937.5	322.162	0.00029274
0.00539755	62803.8	291.461	0.000297289
0.0055519	58677.1	276.954	0.000302317
0.00569704	53691.8	259.65	0.000307144
0.00585407	49867.9	244.642	0.000312769
0.006007	46464.5	235.986	0.000317828
0.00615906	42787.3	215.706	0.000323624
0.0063244	39208.4	202.754	0.000329811
0.00647931	36395.9	199.102	0.000334891
0.00664194	33534.7	177.285	0.000340477
0.00681592	30889.8	167.026	0.000346391
0.00698399	28662.5	164.375	0.000352931
0.0071516	26724.3	149.911	0.000359275
0.00733412	24371.8	139.366	0.000365748
0.00751125	22473.5	136.511	0.000372495
0.00768469	20849.9	125.92	0.000379303
0.00787362	18774	115.114	0.000386537
0.00806333	17454.1	110.871	0.000393391
0.0082532	16120.1	103.945	0.000401001
0.00844338	14973.8	98.9851	0.000408533
0.00864101	13648.4	91.0351	0.000416408
0.00884296	12534.8	86.708	0.000422807
0.0090479	11635.2	80.5411	0.000430957
0.00925716	10641.4	76.4824	0.000439543
0.00946503	9575.56	72.087	0.000447795
0.0096748	9114.64	68.4933	0.000455455
0.00989266	8348.98	63.6626	0.000464345
0.0101183	7610.56	59.1891	0.000473424
0.0103483	7010.17	55.9463	0.000482691
0.0105778	6425.63	53.3204	0.000492161
0.0108126	5938.83	49.4904	0.000500854
0.0110539	5448.87	46.7464	0.000510583
0.0112982	4983.44	43.8663	0.000520859
0.0115451	4633.27	41.7624	0.000530657
0.0117972	4196.89	38.7499	0.000541306
0.0120547	3910.22	36.9192	0.000551079
0.0123165	3628.6	34.6304	0.00056198
0.0125835	3295.97	32.4222	0.000572781
0.0128538	3103.63	30.9784	0.000584177
0.0131302	2788.33	29.4936	0.000595564
0.0134139	2485.27	27.2128	0.000607456
0.0137047	2327.88	25.6067	0.000618498
0.0139981	2162.12	24.5516	0.000630965
0.0142959	1999.5	23.0567	0.000643215
0.0145968	1835.36	22.318	0.000655997
0.0149067	1671.24	20.8862	0.000668615
0.0152245	1527.22	20.8707	0.000682079
0.0155416	1433.1	21.0493	0.00069552
0.0158703	1306.32	20.8058	0.000708419
0.0162063	1196.13	20.3953	0.000722715
0.0165458	1121.41	20.4783	0.000735358
0.0168961	1022.34	21.5503	0.000750106
0.0172498	911.416	21.9036	0.000765174
0.0176078	872.351	22.04	0.000779988
0.0179743	818.028	21.8006	0.000795685
0.0183486	701.079	22.7462	0.000811531
0.0187319	699.568	23.7904	0.000827196
0.019126	604.787	24.7052	0.000846223
0.0195184	633.654	25.6725	0.000861823
0.0199213	561.945	26.9034	0.000880235
0.0203334	497.363	30.8575	0.000896458
0.0207413	459.815	37.799	0.000915381
0.0211555	467.905	49.0056	0.000932688
0.021696	339.85	58.9404	0.00103493
0.0225889	298.031	8.32243	0.00153994
0.0234267	289.6	9.76861	0.00156152
0.024096	279.666	12.4472	0.00158358
0.0248289	211.223	5.12759	0.0016024
0.0256868	212.525	6.59301	0.00163084
0.02647	178.818	7.05336	0.00164829
0.0273646	151.113	4.40334	0.00167908
0.0281582	147.596	4.51786	0.0017048
0.0290186	129.819	5.25163	0.00173302
0.0299207	120.179	3.96507	0.00176066
0.0306662	107.594	3.46969	0.00178458
0.0315771	96.9504	3.68997	0.00181445
0.0325442	86.5327	3.34826	0.00184724
0.0333072	82.5235	2.70035	0.00187199
0.0342802	72.7357	2.88459	0.00190082
0.0353049	67.5228	2.63872	0.00193606
0.0361014	59.8952	2.17299	0.0019613
0.0371374	53.0996	2.18524	0.00199617
0.038214	49.3489	2.05206	0.00204069
0.0390286	47.7823	1.91694	0.00206693
0.0400227	42.4076	1.89533	0.00209875
0.0411547	37.8376	1.58939	0.00214662
0.0421653	36.5815	1.52336	0.00217727
0.0431806	33.4616	1.79135	0.00221107
0.0442044	31.0483	1.27644	0.00225404
0.0452891	29.3317	1.43541	0.00229076
0.0465071	26.0073	1.18166	0.00233354
0.047538	23.9075	1.21692	0.00237602
0.0487023	21.8292	1.17192	0.00241578
0.0498594	21.9711	1.02782	0.00246387
0.0510489	21.3434	1.064	0.00250448
0.0523413	19.2306	0.932283	0.00256018
0.0535034	17.8517	0.913531	0.00260025
0.0548312	17.3819	0.887329	0.00265137
0.0559563	14.7257	0.816971	0.00268944
0.0572668	15.3034	0.849149	0.00274294
0.0585218	13.7665	0.702639	0.00279798
0.059922	14.7212	0.789071	0.00284718
0.0612759	12.8412	0.656983	0.00290359
0.0626587	12.9464	0.712989	0.00295397
0.0640643	11.1231	0.585395	0.00301331
0.0654949	12.4139	0.669002	0.00306335
0.0669345	10.8204	0.541448	0.00312582
0.068476	11.5242	0.591113	0.00318962
0.0699435	9.64011	0.541678	0.00324407
0.0715822	9.12658	0.563154	0.00331265
0.0730513	8.96521	0.543538	0.0033748
0.074727	8.64113	0.496772	0.00343669
0.0762665	7.90824	0.483873	0.00350012
0.0779983	8.47404	0.453938	0.0035755
0.0796379	7.4305	0.475428	0.00363431
0.0813407	7.01558	0.417353	0.0037083
0.0831876	7.27293	0.431886	0.00378505
0.0848966	7.08276	0.410499	0.00385901
0.0867597	6.54418	0.386594	0.00392919
0.0886397	6.3149	0.390929	0.00400902
0.0904668	6.12	0.410281	0.0040873
0.0924651	5.8797	0.349215	0.00416277
0.0944327	5.62505	0.355056	0.00424728
0.0963633	5.93281	0.363468	0.00432777
0.0984362	5.98702	0.334613	0.00441779
0.100555	5.28239	0.343666	0.00449916
0.10262	5.60465	0.351499	0.0045863
0.104764	6.42867	0.321144	0.00467054
0.107	5.9608	0.302995	0.00476482
0.109287	4.93466	0.292267	0.00486264
0.111527	4.84675	0.309303	0.00494962
0.113771	5.30742	0.290211	0.00504363
0.116207	4.5233	0.265811	0.00514891
0.118686	5.38719	0.275259	0.00525545
0.121163	5.05501	0.266938	0.00535893
0.123675	5.01789	0.262362	0.00545867
0.126217	4.85652	0.251285	0.00556805
0.128767	4.93865	0.251063	0.00567646
0.131427	4.791	0.247982	0.00578937
0.134163	4.89156	0.222475	0.00590756
0.136954	4.74419	0.226438	0.00601833
0.139786	4.39218	0.227004	0.00613703
0.14267	4.67353	0.214913	0.00626165
0.145622	4.71708	0.226311	0.00638882
0.148633	4.3945	0.225433	0.00651721
0.151675	4.91895	0.213705	0.00664549
0.15478	4.51061	0.210602	0.00677084
0.157925	4.22615	0.213097	0.00690652
0.161156	4.50223	0.197622	0.00704536
0.164509	4.50438	0.192794	0.00718753
0.167925	4.49979	0.203268	0.00733408
0.171347	4.58763	0.190759	0.00748195
0.174814	4.28103	0.202323	0.00763154
0.178352	4.39054	0.201101	0.00778375
0.181999	4.32488	0.197786	0.00793039
0.185766	4.6118	0.19096	0.00809138
0.189576	4.39488	0.203599	0.00825608
0.193398	4.72496	0.198931	0.00842099
0.197358	4.72313	0.191987	0.00859165
0.201416	4.37314	0.195567	0.00876565
0.205511	4.58262	0.198184	0.00893905
0.209698	4.63675	0.203744	0.00912009
0.213978	4.2552	0.200554	0.00930507
0.218286	4.6687	0.202724	0.00948198
0.222729	4.55568	0.199077	0.00967327
0.227247	4.55268	0.195463	0.00986729
0.231942	4.69469	0.19572	0.0100673
0.236591	4.49535	0.1945	0.0102666
0.241384	4.2483	0.195005	0.0104737
0.246367	4.60202	0.195984	0.0106888
0.251273	4.66246	0.198526	0.0109004
0.256289	4.87025	0.192035	0.0111165
0.261558	4.73335	0.186141	0.011343
0.266909	4.36043	0.188806	0.0115631
0.272339	4.52275	0.19487	0.011795
0.27787	4.36704	0.18986	0.0120337
0.283505	4.82967	0.197148	0.0122769
0.289245	4.73976	0.18589	0.0125246
0.294897	4.79107	0.211684	0.0127681
0.300873	4.72881	0.250744	0.0130252
0.306987	5.20569	0.299077	0.0132877
0.313177	4.93772	0.324756	0.013552
0.3194	4.60544	0.432233	0.0138184
0.32564	4.82228	0.637662	0.0140796
0.331999	4.4673	1.23677	0.0143537
